function yi = pat_get_spectrums(wavelengths, i_chromophore)

% Donne le spectre d'emission photoacoustique relative au sang
% pour le chromophore identifié par l'entier i_chromophore


E = [
680	1     4.9502     0.7108     1.9801
682	1     4.9597     0.7454     1.9839
684	1     4.9681     0.7812     1.9872
686	1     4.9756     0.8179     1.9902
688	1     4.9820     0.8557     1.9928
690	1     4.9875     0.8946     1.9950
692	1     4.9920     0.9345     1.9968
694	1     4.9955     0.9753     1.9982
696	1     4.9980     1.0172     1.9992
698	1     4.9995     1.0599     1.9998
700	1     5.0000     1.1036     2.0000
702	1     4.9995     1.1482     1.9998
704	1     4.9980     1.1936     1.9992
706	1     4.9955     1.2399     1.9982
708	1     4.9920     1.2869     1.9968
710	1     4.9875     1.3346     1.9950
712	1     4.9820     1.3829     1.9928
714	1     4.9756     1.4319     1.9902
716	1     4.9681     1.4814     1.9872
718	1     4.9597     1.5314     1.9839
720	1     4.9502     1.5819     1.9801
722	1     4.9399     1.6327     1.9759
724	1     4.9285     1.6837     1.9714
726	1     4.9162     1.7350     1.9665
728	1     4.9030     1.7864     1.9612
730	1     4.8888     1.8379     1.9555
732	1     4.8736     1.8893     1.9494
734	1     4.8576     1.9406     1.9430
736	1     4.8406     1.9917     1.9362
738	1     4.8227     2.0426     1.9291
740	1     4.8039     2.0930     1.9216
742	1     4.7843     2.1430     1.9137
744	1     4.7638     2.1924     1.9055
746	1     4.7424     2.2412     1.8969
748	1     4.7201     2.2892     1.8881
750	1     4.6971     2.3364     1.8788
752	1     4.6732     2.3826     1.8693
754	1     4.6485     2.4279     1.8594
756	1     4.6230     2.4720     1.8492
758	1     4.5967     2.5148     1.8387
760	1     4.5697     2.5564     1.8279
762	1     4.5419     2.5966     1.8167
764	1     4.5133     2.6353     1.8053
766	1     4.4841     2.6725     1.7936
768	1     4.4542     2.7080     1.7817
770	1     4.4235     2.7418     1.7694
772	1     4.3922     2.7738     1.7569
774	1     4.3603     2.8039     1.7441
776	1     4.3277     2.8321     1.7311
778	1     4.2945     2.8583     1.7178
780	1     4.2607     2.8824     1.7043
782	1     4.2263     2.9044     1.6905
784	1     4.1914     2.9242     1.6766
786	1     4.1559     2.9418     1.6624
788	1     4.1199     2.9571     1.6480
790	1     4.0834     2.9701     1.6334
792	1     4.0464     2.9809     1.6186
794	1     4.0090     2.9892     1.6036
796	1     3.9711     2.9952     1.5884
798	1     3.9327     2.9988     1.5731
800	1     3.8940     3.0000     1.5576
802	1     3.8549     2.9988     1.5419
804	1     3.8154     2.9952     1.5261
806	1     3.7755     2.9892     1.5102
808	1     3.7353     2.9809     1.4941
810	1     3.6948     2.9701     1.4779
812	1     3.6541     2.9571     1.4616
814	1     3.6130     2.9418     1.4452
816	1     3.5717     2.9242     1.4287
818	1     3.5301     2.9044     1.4121
820	1     3.4884     2.8824     1.3954
822	1     3.4464     2.8583     1.3786
824	1     3.4043     2.8321     1.3617
826	1     3.3620     2.8039     1.3448
828	1     3.3196     2.7738     1.3278
830	1     3.2770     2.7418     1.3108
832	1     3.2344     2.7080     1.2938
834	1     3.1916     2.6725     1.2767
836	1     3.1489     2.6353     1.2595
838	1     3.1060     2.5966     1.2424
840	1     3.0631     2.5564     1.2253
842	1     3.0202     2.5148     1.2081
844	1     2.9774     2.4720     1.1909
846	1     2.9345     2.4279     1.1738
848	1     2.8917     2.3826     1.1567
850	1     2.8489     2.3364     1.1396
852	1     2.8062     2.2892     1.1225
854	1     2.7636     2.2412     1.1054
856	1     2.7211     2.1924     1.0884
858	1     2.6787     2.1430     1.0715
860	1     2.6365     2.0930     1.0546
862	1     2.5944     2.0426     1.0377
864	1     2.5524     1.9917     1.0210
866	1     2.5106     1.9406     1.0043
868	1     2.4691     1.8893     0.9876
870	1     2.4277     1.8379     0.9711
872	1     2.3865     1.7864     0.9546
874	1     2.3456     1.7350     0.9382
876	1     2.3049     1.6837     0.9220
878	1     2.2645     1.6327     0.9058
880	1     2.2243     1.5819     0.8897
882	1     2.1844     1.5314     0.8738
884	1     2.1448     1.4814     0.8579
886	1     2.1055     1.4319     0.8422
888	1     2.0665     1.3829     0.8266
890	1     2.0278     1.3346     0.8111
892	1     1.9894     1.2869     0.7958
894	1     1.9514     1.2399     0.7806
896	1     1.9137     1.1936     0.7655
898	1     1.8764     1.1482     0.7505
900	1     1.8394     1.1036     0.7358
902	1     1.8028     1.0599     0.7211
904	1     1.7666     1.0172     0.7066
906	1     1.7307     0.9753     0.6923
908	1     1.6953     0.9345     0.6781
910	1     1.6602     0.8946     0.6641
912	1     1.6255     0.8557     0.6502
914	1     1.5913     0.8179     0.6365
916	1     1.5574     0.7812     0.6230
918	1     1.5240     0.7454     0.6096
920	1     1.4910     0.7108     0.5964
922	1     1.4584     0.6772     0.5834
924	1     1.4262     0.6447     0.5705
926	1     1.3945     0.6132     0.5578
928	1     1.3632     0.5829     0.5453
930	1     1.3323     0.5536     0.5329
932	1     1.3019     0.5253     0.5208
934	1     1.2719     0.4981     0.5088
936	1     1.2424     0.4719     0.4970
938	1     1.2133     0.4467     0.4853
940	1     1.1846     0.4226     0.4739
942	1     1.1564     0.3994     0.4626
944	1     1.1287     0.3772     0.4515
946	1     1.1014     0.3559     0.4405
948	1     1.0745     0.3356     0.4298
950	1     1.0481     0.3162     0.4192
952	1     1.0221     0.2977     0.4088
954	1     0.9965     0.2800     0.3986
956	1     0.9715     0.2632     0.3886
958	1     0.9468     0.2471     0.3787
960	1     0.9226     0.2319     0.3690
962	1     0.8988     0.2174     0.3595
964	1     0.8755     0.2037     0.3502
966	1     0.8526     0.1907     0.3410
968	1     0.8301     0.1784     0.3321
970	1     0.8081     0.1667     0.3232
 ];

xi = wavelengths;
x = E(:,1);
y = E(:,i_chromophore+1);
yi = interp1(x,y,xi); 
